File: sandbox/measuring_monthly_increases/offline_data/TGA.txt
2005-01-03, 4.88
2005-01-25, 5.95
2005-02-15, 6.78
2005-03-09, 7.17
2005-03-31, 6.41
2005-04-21, 5.28
2005-05-12, 5.01
2005-06-03, 5.56
2005-06-24, 6.91
2005-07-18, 6.33
2005-08-08, 6.43
2005-08-29, 6.27
2005-09-20, 6.37
2005-10-11, 5.97
2005-11-01, 5.36
2005-11-22, 5.56
2005-12-14, 5.8
2006-01-06, 5.15
2006-01-30, 5.84
2006-02-21, 5.78
2006-03-14, 5.57
2006-04-04, 5.28
2006-04-26, 6.02
2006-05-17, 5.16
2006-06-08, 4.88
2006-06-29, 4.64
2006-07-21, 4.5
2006-08-11, 4.86
2006-09-01, 5.08
2006-09-25, 4.56
2006-10-16, 4.9
2006-11-06, 4.58
2006-11-28, 5.03
2006-12-19, 5.19
2007-01-12, 4.74
2007-02-05, 4.7
2007-02-27, 4.44
2007-03-20, 3.86
2007-04-11, 3.91
2007-05-02, 4.17
2007-05-23, 3.97
2007-06-14, 3.94
2007-07-06, 4.9
2007-07-27, 4.89
2007-08-17, 3.88
2007-09-10, 4.36
2007-10-01, 5.01
2007-10-22, 5.34
2007-11-12, 5.1
2007-12-04, 5.08
2007-12-26, 5.24
2008-01-17, 4.83
2008-02-08, 4.85
2008-03-03, 5.4
2008-03-25, 4.68
2008-04-15, 4.73
2008-05-06, 4.81
2008-05-28, 5.18
2008-06-18, 5.33
2008-07-10, 4.51
2008-07-31, 4.22
2008-08-21, 4.13
2008-09-12, 3.31
2008-10-03, 2.8
2008-10-24, 1.79
2008-11-14, 2.15
2008-12-08, 2.01
2008-12-30, 2.44
2009-01-22, 2.38
2009-02-12, 2.75
2009-03-06, 2.52
2009-03-27, 2.86
2009-04-20, 2.4
2009-05-11, 2.79
2009-06-02, 2.87
2009-06-23, 2.6
2009-07-15, 2.57
2009-08-05, 3.28
2009-08-26, 3.13
2009-09-17, 3.64
2009-10-08, 3.89
2009-10-29, 3.96
2009-11-19, 3.44
2009-12-11, 3.33
2010-01-05, 3.57
2010-01-27, 3.59
2010-02-18, 4.03
2010-03-11, 4.29
2010-04-01, 6.11
2010-04-23, 7.34
2010-05-14, 7.3
2010-06-07, 7.41
2010-06-28, 7.66
2010-07-20, 7.18
2010-08-10, 7.69
2010-08-31, 7.16
2010-09-22, 8.83
2010-10-13, 10.42
2010-11-03, 11.75
2010-11-24, 16.87
2010-12-16, 14.68
2011-01-07, 15.82
2011-01-31, 12.15
2011-02-22, 13.77
2011-03-15, 13.37
2011-04-05, 15.62
2011-04-27, 14.31
2011-05-18, 12.84
2011-06-09, 13.38
2011-06-30, 11.4
2011-07-22, 12.0
2011-08-12, 9.33
2011-09-02, 9.33
2011-09-26, 8.52
2011-10-17, 8.82
2011-11-07, 10.15
2011-11-29, 7.91
2011-12-20, 7.84
2012-01-12, 8.96
2012-02-03, 10.18
2012-02-27, 11.17
2012-03-19, 11.83
2012-04-10, 12.37
2012-05-01, 14.43
2012-05-22, 10.58
2012-06-13, 9.8
2012-07-05, 9.0
2012-07-26, 9.16
2012-08-16, 9.93
2012-09-07, 11.96
2012-09-28, 10.86
2012-10-19, 11.39
2012-11-13, 11.39
2012-12-05, 10.19
2012-12-27, 9.43
2013-01-18, 8.78
2013-02-11, 8.75
2013-03-05, 8.46
2013-03-26, 8.62
2013-04-17, 6.9
2013-05-08, 8.24
2013-05-30, 7.67
2013-06-20, 6.09
2013-07-12, 6.02
2013-08-02, 6.74
2013-08-23, 7.03
2013-09-16, 7.69
2013-10-07, 9.06
2013-10-28, 9.28
2013-11-18, 8.58
2013-12-10, 8.88
2014-01-02, 8.33
2014-01-24, 8.39
2014-02-14, 7.33
2014-03-10, 7.68
2014-03-31, 7.58
2014-04-22, 8.0
2014-05-13, 6.65
2014-06-04, 6.94
2014-06-25, 7.18
2014-07-17, 6.56
2014-08-07, 6.11
2014-08-28, 6.73
2014-09-19, 6.24
2014-10-10, 5.08
2014-10-31, 4.34
2014-11-21, 4.03
2014-12-15, 2.9
2015-01-07, 3.54
2015-01-29, 2.76
2015-02-20, 3.03
2015-03-13, 2.83
2015-04-06, 4.03
2015-04-27, 4.39
2015-05-18, 4.18
2015-06-09, 4.15
2015-06-30, 3.99
2015-07-22, 3.1
2015-08-12, 3.09
2015-09-02, 2.85
2015-09-24, 2.61
2015-10-15, 2.84
2015-11-05, 2.79
2015-11-27, 1.99
2015-12-18, 1.68
2016-01-12, 1.35
2016-02-03, 1.27
2016-02-25, 1.46
2016-03-17, 1.68
2016-04-08, 1.75
2016-04-29, 1.94
2016-05-20, 1.75
2016-06-13, 1.72
2016-07-05, 1.8
2016-07-26, 1.65
2016-08-16, 1.92
2016-09-07, 1.97
2016-09-28, 1.94
2016-10-19, 2.06
2016-11-09, 1.84
2016-12-01, 1.93
2016-12-22, 1.69
2017-01-17, 1.8
2017-02-07, 1.7
2017-03-01, 1.7
2017-03-22, 1.5
2017-04-12, 1.64
2017-05-04, 1.38
2017-05-25, 1.48
2017-06-16, 1.28
2017-07-10, 1.28
2017-07-31, 1.35
2017-08-21, 1.2
2017-09-12, 1.17
2017-10-03, 1.42
2017-10-24, 1.57
2017-11-14, 1.48
2017-12-06, 1.37
2017-12-28, 1.4
2018-01-22, 1.47
2018-02-12, 1.33
2018-03-06, 1.28
2018-03-27, 1.35
2018-04-18, 1.39
2018-05-09, 2.12
2018-05-31, 2.54
2018-06-21, 2.31
2018-07-13, 4.05
2018-08-03, 3.22
2018-08-24, 3.49
2018-09-17, 3.55
2018-10-08, 3.28
2018-10-29, 2.31
2018-11-19, 2.32
2018-12-12, 1.88
2019-01-04, 1.94
2019-01-28, 1.79
2019-02-19, 2.12
2019-03-12, 2.11
2019-04-02, 1.86
2019-04-24, 1.92
2019-05-15, 1.75
2019-06-06, 1.51
2019-06-27, 1.42
2019-07-19, 1.45
2019-08-09, 1.43
2019-08-30, 1.33
2019-09-23, 1.41
2019-10-14, 1.3
2019-11-04, 1.24
2019-11-25, 1.14
2019-12-17, 1.25
2020-01-09, 1.39
2020-01-31, 1.28
2020-02-24, 1.21
2020-03-16, 0.51
2020-04-06, 0.41
2020-04-28, 0.47
2020-05-19, 0.52
2020-06-10, 0.63
2020-07-01, 0.59
2020-07-23, 0.6
2020-08-13, 0.6
2020-09-03, 0.51
2020-09-25, 0.4
2020-10-16, 0.45
2020-11-06, 0.43
2020-11-30, 0.51
2020-12-21, 0.83
2021-01-13, 1.12
2021-02-04, 1.23
2021-02-26, 1.45
2021-03-19, 1.68
2021-04-12, 1.46
2021-05-03, 1.59
2021-05-24, 1.79
2021-06-15, 1.85
2021-07-07, 1.79
2021-07-28, 1.65
2021-08-18, 1.62
2021-09-09, 1.8
2021-09-30, 2.19
2021-10-21, 2.64
2021-11-11, 3.0
2021-12-03, 2.62
2021-12-27, 3.07
2021-12-32, 3.6515